##SPECMAN_ASCII(ACD)
##Version = 1.01
##IonMode = Positive
##PointsCount = 1222
##FirstX = 96.043
##LastX = 1465.1963
##DATA TYPE=MASS SPECTRUM
##XYPOINTS=(XY..XY)

96.043, 2140.000
97.077, 479.000
98.073, 470.000
100.113, 2635.000
101.004, 15857.000
102.056, 2742.000
102.129, 3827.000
103.000, 597.000
103.957, 6567.000
105.043, 1198.000
105.955, 3207.000
106.066, 681.000
106.087, 1180.000
107.071, 418.000
107.968, 405.000
108.082, 943.000
109.038, 8870.000
110.010, 418.000
111.055, 442.000
114.092, 466.000
115.038, 11778.000
115.055, 1571.000
116.041, 607.000
116.119, 383.000
117.049, 504.000
117.103, 973.000
118.087, 1899.000
118.125, 464.000
119.061, 3034.000
119.083, 2262.000
121.967, 13384.000
122.098, 811.000
123.093, 573.000
123.966, 5902.000
124.077, 1584.000
127.038, 612.000
128.021, 604.000
128.119, 613.000
129.054, 8341.000
130.066, 651.000
130.160, 1329.000
130.968, 945.000
131.963, 11809.000
132.964, 663.000
133.078, 515.000
133.099, 585.000
133.961, 4941.000
136.023, 841.000
136.113, 656.000
137.061, 1397.000
139.055, 1970.000
139.085, 2875.000
140.119, 649.000
141.053, 561.000
141.069, 921.000
141.090, 485.000
143.070, 681.000
143.082, 894.000
144.067, 887.000
144.082, 5344.000
144.983, 29354.000
145.048, 1130.000
145.084, 532.000
145.135, 653.000
145.986, 1249.000
146.982, 11690.000
147.984, 717.000
149.024, 1362.000
151.037, 967.000
151.097, 1394.000
152.949, 1180.000
154.949, 593.000
155.094, 3227.000
155.156, 4646.000
156.065, 2442.000
156.081, 760.000
156.159, 403.000
157.085, 4525.000
157.110, 3125.000
159.066, 784.000
161.030, 536.000
161.094, 1555.000
163.056, 1311.000
163.134, 658.000
164.063, 1180.000
164.093, 1947.000
165.072, 82280.000
166.075, 10269.000
167.076, 949.000
167.105, 745.000
168.062, 537.000
169.048, 976.000
169.099, 1508.000
171.065, 597.000
171.101, 6570.000
172.104, 552.000
173.080, 33918.000
173.104, 748.000
174.085, 2266.000
174.187, 4085.000
175.190, 511.000
177.089, 439.000
179.106, 500.000
180.103, 426.000
180.138, 666.000
181.050, 1396.000
181.078, 2605.000
181.110, 2005.000
182.080, 827.000
182.193, 518.000
183.063, 538.000
183.083, 580.000
183.101, 758.000
183.115, 1446.000
184.117, 571.000
185.044, 1910.000
185.117, 9829.000
186.121, 773.000
186.188, 802.000
187.059, 756.000
187.096, 971.000
187.120, 692.000
188.109, 1523.000
188.167, 579.000
189.039, 1111.000
189.074, 753.000
191.105, 1499.000
193.131, 652.000
195.100, 1057.000
195.125, 1799.000
196.096, 981.000
197.080, 2072.000
197.129, 698.000
198.127, 887.000
199.093, 473.000
199.132, 631.000
201.078, 460.000
201.110, 776.000
202.080, 1501.000
202.182, 781.000
202.219, 747.000
203.054, 1948.000
203.089, 1250.000
205.065, 1835.000
205.089, 1339.000
206.192, 582.000
207.102, 423.000
207.137, 558.000
208.154, 828.000
209.117, 803.000
209.155, 494.000
209.203, 1275.000
210.112, 1613.000
211.096, 934.000
211.125, 498.000
211.145, 464.000
211.534, 421.000
213.075, 463.000
213.114, 865.000
213.148, 1866.000
215.088, 3433.000
215.127, 4749.000
216.092, 816.000
216.129, 520.000
216.198, 975.000
217.082, 828.000
217.107, 61627.000
218.110, 6085.000
218.214, 1956.000
219.112, 991.000
219.217, 422.000
221.177, 548.000
222.185, 423.000
223.066, 1486.000
223.097, 550.000
223.132, 2018.000
224.067, 398.000
224.165, 4060.000
225.033, 427.000
225.112, 1124.000
225.148, 467.000
225.165, 541.000
225.197, 497.000
226.080, 1263.000
227.088, 1394.000
227.125, 828.000
228.095, 8845.000
229.099, 2125.000
229.142, 1044.000
230.250, 779.000
231.086, 1551.000
231.122, 1639.000
232.193, 2051.000
233.082, 603.000
234.209, 96831.000
235.098, 857.000
235.132, 642.000
235.212, 13351.000
236.214, 1358.000
237.111, 492.000
237.149, 405.000
239.062, 948.000
239.089, 797.000
239.127, 707.000
239.151, 3721.000
240.155, 478.000
241.071, 3507.000
241.104, 2003.000
241.143, 764.000
241.170, 587.000
242.073, 531.000
242.111, 1815.000
242.626, 669.000
242.689, 645.000
242.726, 773.000
243.119, 3617769.000
243.210, 1160.000
243.235, 432.000
243.288, 3064.000
243.363, 4073.000
243.431, 2169.000
243.485, 1357.000
243.509, 31399.000
243.577, 1497.000
243.639, 1101.000
243.732, 1063.000
243.793, 695.000
243.847, 432.000
243.883, 486.000
243.924, 543.000
244.008, 598.000
244.084, 737.000
244.123, 740445.000
244.212, 416.000
244.232, 649.000
244.267, 770.000
244.341, 774.000
244.419, 489.000
244.446, 577.000
244.498, 457.000
244.516, 626.000
245.081, 1120.000
245.101, 1097.000
245.126, 69608.000
246.129, 5299.000
246.246, 654.000
247.118, 1471.000
248.188, 522.000
248.240, 2989.000
249.148, 438.000
249.185, 612.000
249.244, 608.000
250.179, 814.000
250.207, 500.000
251.129, 564.000
252.169, 522.000
252.196, 910.000
253.120, 515.000
253.145, 431.000
254.175, 1604.000
255.159, 1566.000
256.174, 879.000
257.102, 500.000
257.137, 1128.000
257.173, 863.000
258.136, 421.000
258.170, 3173.000
259.115, 1849.000
259.155, 940.000
259.172, 960.000
260.224, 718.000
260.263, 447.000
261.133, 64707.000
262.137, 7006.000
262.240, 26633.000
263.059, 4766.000
263.137, 1128.000
263.244, 3861.000
264.059, 1043.000
264.173, 940.000
264.245, 694.000
265.057, 970.000
265.150, 479.000
266.177, 629.000
267.131, 631.000
269.212, 905.000
271.154, 1130.000
271.190, 1611.000
272.192, 449.000
272.261, 581.000
273.137, 583.000
273.170, 5491.000
274.141, 2447.000
274.173, 1103.000
274.277, 1486.000
275.113, 3123.000
275.148, 1574.000
276.175, 416.000
277.075, 637.000
277.115, 3187.000
277.143, 771.000
277.970, 958.000
278.118, 1067.000
278.239, 532.000
279.096, 7417.000
279.161, 842.000
279.967, 959.000
280.102, 1006.000
280.229, 645.000
281.149, 671.000
281.177, 2638.000
282.104, 1481.000
283.110, 785.000
283.178, 4017.000
283.226, 617.000
284.181, 641.000
284.335, 1018.000
285.135, 534.000
285.167, 678.000
287.150, 458.000
287.998, 1547.000
288.256, 1245.000
288.950, 680.000
289.129, 1021.000
289.160, 1750.000
289.998, 417.000
290.272, 27454.000
291.144, 1234.000
291.275, 5763.000
292.277, 413.000
293.111, 3949.000
293.212, 539.000
294.114, 832.000
294.243, 787.000
295.119, 1026.000
296.119, 859.000
296.155, 5599.000
296.657, 2008.000
297.086, 1046.000
297.158, 837.000
297.243, 1031.000
298.077, 667.000
299.113, 508.000
299.186, 2055.000
300.204, 2695.000
301.078, 13633.000
301.144, 15140.000
301.206, 1025.000
302.082, 2754.000
302.147, 2651.000
302.249, 406.000
302.965, 500.000
303.146, 1096.000
304.137, 1249.000
304.264, 895.000
304.288, 8369.000
305.160, 68023.000
305.290, 1552.000
306.164, 9938.000
306.278, 558.000
307.166, 1571.000
309.206, 904.000
310.238, 421.000
311.157, 463.000
311.258, 705.000
313.239, 1009.000
315.094, 9720.000
315.183, 1191.000
316.098, 2232.000
316.174, 706.000
317.053, 441.000
317.101, 518.000
317.121, 596.000
317.165, 414.000
317.206, 665.000
318.153, 14957.000
318.303, 562.000
318.670, 1269.000
319.088, 535.000
319.154, 4106.000
319.227, 412.000
320.142, 777.000
321.135, 1399.000
321.243, 524.000
322.084, 396.000
323.201, 481.000
324.176, 817.000
325.162, 387.000
326.382, 870.000
327.205, 2981.000
328.208, 655.000
329.161, 451.000
329.191, 897.000
329.217, 408.000
329.250, 427.000
331.005, 461.000
331.214, 3126.000
332.217, 665.000
332.318, 675.000
333.156, 1244.000
333.240, 482.000
335.130, 388.000
335.170, 1477.000
336.175, 402.000
337.078, 4618.000
337.107, 1894.000
337.167, 591.000
337.239, 629.000
338.080, 1557.000
338.345, 1659.000
339.076, 762.000
339.252, 385.000
339.353, 384.000
340.182, 2469.000
340.683, 1137.000
341.153, 467.000
341.269, 991.000
343.211, 813.000
344.232, 7286.000
345.234, 2013.000
346.237, 426.000
347.171, 1188.000
348.191, 1023.000
348.917, 485.000
349.148, 400.000
349.187, 68027.000
350.190, 10468.000
351.096, 596.000
351.196, 3132.000
352.204, 675.000
353.149, 3487.000
353.215, 1846.000
353.271, 453.000
354.153, 987.000
355.288, 508.000
356.284, 455.000
357.264, 1531.000
359.212, 972.000
360.327, 7001.000
361.151, 468.000
361.239, 2539.000
361.331, 1861.000
362.196, 1947.000
362.242, 508.000
362.697, 470.000
363.167, 2839.000
363.201, 1994.000
364.174, 389.000
365.162, 1875.000
365.218, 531.000
366.167, 459.000
367.232, 1097.000
369.188, 493.000
369.303, 480.000
371.106, 1106.000
371.166, 1950.000
371.232, 1184.000
372.104, 429.000
372.169, 559.000
373.223, 860.000
375.255, 2838.000
376.259, 836.000
377.183, 1334.000
377.217, 639.000
378.188, 402.000
379.199, 1060.000
381.195, 449.000
383.176, 428.000
384.209, 1330.000
384.710, 413.000
385.153, 404.000
385.190, 520.000
385.296, 1243.000
388.228, 560.000
388.258, 9755.000
389.117, 382.000
389.159, 491.000
389.259, 2432.000
390.263, 578.000
391.115, 399.000
391.198, 1451.000
391.287, 1099.000
392.290, 449.000
393.177, 890.000
393.214, 56178.000
393.302, 1041.000
394.217, 9904.000
394.308, 395.000
395.220, 1957.000
398.191, 415.000
399.203, 483.000
399.312, 940.000
400.220, 425.000
400.315, 664.000
401.292, 1308.000
402.235, 395.000
403.203, 546.000
403.246, 577.000
405.184, 565.000
405.266, 4803.000
406.217, 576.000
406.267, 1279.000
406.723, 447.000
407.193, 2045.000
407.230, 1086.000
408.193, 421.000
408.312, 2276.000
409.118, 1185.000
409.188, 2281.000
409.315, 564.000
410.119, 626.000
411.098, 5623.000
411.185, 398.000
412.099, 2598.000
413.095, 1498.000
413.194, 438.000
413.271, 15067.000
413.329, 726.000
414.098, 544.000
414.274, 4319.000
414.326, 469.000
415.057, 404.000
415.191, 815.000
415.277, 751.000
416.282, 407.000
417.214, 385.000
419.247, 457.000
419.281, 6470.000
420.284, 1713.000
421.175, 425.000
421.209, 1169.000
421.240, 417.000
423.225, 689.000
425.114, 728.000
425.191, 606.000
425.220, 571.000
427.256, 1029.000
429.248, 505.000
429.322, 1483.000
430.326, 463.000
431.280, 423.000
432.285, 7431.000
433.211, 402.000
433.288, 1986.000
434.292, 387.000
435.223, 855.000
437.205, 758.000
437.240, 42232.000
438.244, 8214.000
439.246, 1885.000
440.245, 421.000
441.301, 1038.000
441.362, 414.000
443.341, 1114.000
444.340, 727.000
445.317, 1184.000
447.269, 619.000
447.355, 411.000
449.292, 5336.000
450.295, 1431.000
451.221, 1377.000
451.255, 843.000
451.296, 412.000
453.212, 1370.000
454.218, 404.000
457.282, 2608.000
457.356, 854.000
458.041, 1153.000
458.285, 657.000
458.354, 583.000
459.222, 1201.000
459.332, 386.000
460.039, 1027.000
460.227, 712.000
461.212, 2422.000
462.213, 1018.000
462.294, 383.000
463.135, 704.000
463.217, 415.000
463.273, 732.000
463.308, 4940.000
464.310, 1559.000
465.200, 382.000
465.237, 966.000
465.270, 529.000
467.109, 1146.000
467.253, 399.000
468.068, 392.000
469.087, 1531.000
469.243, 413.000
469.335, 2909.000
470.086, 626.000
470.338, 663.000
471.344, 383.000
472.443, 392.000
473.350, 890.000
474.356, 538.000
476.312, 4870.000
477.317, 1645.000
479.215, 490.000
479.254, 580.000
479.301, 404.000
481.267, 28944.000
482.270, 6114.000
483.139, 1980.000
483.273, 1491.000
483.353, 457.000
484.140, 964.000
485.118, 5153.000
486.119, 2678.000
487.115, 1722.000
487.366, 1025.000
488.119, 838.000
488.364, 966.000
489.076, 492.000
489.345, 727.000
490.350, 519.000
493.230, 769.000
493.319, 5511.000
494.132, 1802.000
494.322, 1566.000
495.246, 1263.000
496.335, 524.000
497.239, 1091.000
498.291, 386.000
499.137, 561.000
501.248, 383.000
501.380, 464.000
502.386, 461.000
503.245, 2295.000
504.246, 668.000
505.231, 787.000
505.345, 383.000
507.298, 540.000
507.335, 3087.000
508.335, 1089.000
509.262, 618.000
509.300, 736.000
511.283, 403.000
512.296, 907.000
513.419, 493.000
516.113, 399.000
517.376, 910.000
519.142, 509.000
520.338, 2338.000
521.342, 585.000
523.276, 565.000
525.259, 785.000
525.294, 17253.000
526.298, 4947.000
527.301, 1223.000
528.512, 400.000
530.234, 15757.000
531.238, 5253.000
531.390, 981.000
532.242, 1079.000
532.390, 661.000
533.206, 482.000
534.205, 1507.000
535.302, 402.000
536.171, 7075.000
537.173, 2982.000
537.259, 592.000
537.345, 3272.000
538.170, 2153.000
538.233, 1051.000
538.349, 1093.000
539.172, 1110.000
539.238, 550.000
539.275, 921.000
539.314, 404.000
540.168, 384.000
540.325, 387.000
541.126, 15429.000
541.220, 1283.000
541.269, 474.000
542.127, 6771.000
543.122, 4504.000
544.119, 1483.000
544.248, 690.000
545.112, 864.000
547.221, 574.000
547.271, 2758.000
548.275, 1126.000
549.261, 791.000
551.325, 382.000
551.361, 1835.000
552.216, 43436.000
552.362, 736.000
553.220, 14607.000
553.292, 511.000
553.325, 447.000
554.185, 716.000
554.223, 2946.000
554.346, 447.000
555.225, 713.000
557.101, 1111.000
557.156, 2422.000
557.204, 647.000
558.102, 464.000
558.158, 1071.000
559.099, 754.000
559.137, 5223.000
560.138, 2443.000
561.136, 1694.000
561.399, 470.000
562.137, 501.000
562.206, 1339.000
562.261, 7102.000
563.132, 390.000
563.209, 404.000
563.262, 3033.000
564.219, 1188.000
564.266, 689.000
564.366, 1253.000
565.227, 422.000
566.233, 492.000
566.265, 762.000
567.272, 561.000
568.190, 1048.000
568.358, 794.000
569.195, 440.000
569.320, 8444.000
570.271, 786.000
570.324, 1885.000
571.327, 721.000
574.198, 2742.000
575.201, 738.000
575.415, 648.000
576.423, 395.000
578.240, 749.000
579.166, 632.000
579.238, 663.000
580.282, 665.000
581.285, 465.000
581.371, 1484.000
582.378, 999.000
583.299, 522.000
584.188, 2117.000
584.242, 7404.000
585.193, 796.000
585.247, 2335.000
586.199, 570.000
586.248, 575.000
586.344, 829.000
589.214, 603.000
591.299, 3167.000
592.303, 1065.000
593.181, 776.000
593.286, 673.000
594.169, 520.000
594.232, 1178.000
595.389, 1038.000
596.390, 411.000
600.219, 618.000
601.225, 574.000
602.274, 2079.000
603.278, 820.000
605.430, 519.000
606.228, 454.000
608.390, 794.000
609.401, 382.000
610.190, 16878.000
611.191, 9198.000
612.190, 6764.000
613.189, 3266.000
613.347, 3387.000
614.190, 1073.000
614.350, 1077.000
615.146, 20312.000
616.147, 11493.000
616.215, 975.000
617.144, 8930.000
617.217, 400.000
618.143, 3284.000
619.141, 1930.000
619.454, 393.000
620.135, 684.000
624.248, 1950.000
625.254, 826.000
625.402, 399.000
626.221, 1715.000
627.222, 555.000
627.329, 414.000
628.200, 959.000
629.204, 448.000
630.198, 445.000
630.323, 2484.000
630.370, 630.000
631.121, 2642.000
631.178, 1796.000
631.328, 1194.000
632.125, 1070.000
632.180, 1014.000
632.329, 458.000
633.119, 1001.000
633.158, 4570.000
633.331, 487.000
634.116, 538.000
634.159, 2193.000
634.301, 622.000
635.156, 2004.000
635.325, 3146.000
636.155, 890.000
636.276, 622.000
636.331, 1057.000
637.323, 415.000
639.413, 741.000
648.206, 2018.000
648.333, 627.000
649.206, 721.000
651.134, 448.000
657.376, 1250.000
658.376, 607.000
663.464, 400.000
674.394, 570.000
679.352, 1939.000
680.357, 1045.000
683.439, 717.000
684.210, 19351.000
685.210, 12150.000
685.443, 1327.000
686.209, 9631.000
686.446, 611.000
687.208, 3876.000
688.205, 1995.000
689.165, 28990.000
690.166, 17173.000
691.164, 14963.000
691.357, 688.000
692.163, 6669.000
693.162, 3233.000
694.157, 916.000
695.153, 451.000
701.404, 514.000
702.221, 807.000
703.224, 686.000
704.221, 576.000
705.140, 2803.000
705.198, 1226.000
706.141, 2018.000
706.196, 692.000
707.140, 1579.000
707.177, 3659.000
707.497, 424.000
708.140, 833.000
708.175, 2438.000
709.176, 1764.000
710.172, 911.000
711.135, 446.000
711.170, 482.000
721.186, 469.000
723.378, 1668.000
724.379, 593.000
726.223, 413.000
748.328, 2312.000
749.313, 6513.000
750.316, 3844.000
751.315, 1435.000
755.250, 424.000
758.229, 17353.000
759.230, 12468.000
760.229, 10142.000
761.229, 5231.000
762.225, 2679.000
763.185, 32131.000
764.186, 22900.000
765.184, 19256.000
766.183, 9540.000
767.182, 5311.000
767.406, 1133.000
768.179, 1968.000
769.181, 503.000
771.297, 806.000
776.240, 714.000
777.242, 565.000
778.238, 537.000
779.161, 2979.000
779.219, 1752.000
780.160, 2070.000
780.218, 1018.000
781.161, 1707.000
781.195, 3033.000
782.197, 2063.000
783.192, 1576.000
784.188, 1006.000
785.176, 425.000
788.341, 458.000
804.455, 565.000
804.521, 750.000
804.563, 848.000
804.615, 851.000
804.849, 505.000
804.942, 511.000
805.160, 474.000
805.321, 537.000
805.385, 436.000
805.490, 460.000
805.568, 810.000
805.642, 821.000
805.760, 646.000
805.862, 623.000
805.987, 871.000
806.072, 1381.000
806.137, 1831.000
806.183, 2476.000
806.229, 2148.000
806.334, 2766420.000
806.495, 1132.000
806.555, 433.000
806.642, 3731.000
806.779, 5661.000
806.905, 2436.000
806.997, 2100.000
807.047, 21881.000
807.149, 2589.000
807.182, 3026.000
807.337, 1508452.000
807.492, 1339.000
807.553, 838.000
807.649, 1911.000
807.782, 2731.000
807.796, 2751.000
807.887, 1686.000
808.053, 2671.000
808.112, 1588.000
808.147, 1717.000
808.172, 1934.000
808.339, 526695.000
808.454, 705.000
808.496, 977.000
808.600, 845.000
808.660, 859.000
808.740, 941.000
808.781, 1158.000
808.936, 856.000
809.062, 891.000
809.118, 666.000
809.227, 914.000
809.339, 134919.000
809.537, 664.000
809.576, 542.000
809.708, 520.000
809.748, 471.000
809.801, 440.000
809.833, 515.000
810.340, 29129.000
810.682, 389.000
811.341, 4995.000
811.435, 462.000
812.341, 1633.000
813.345, 626.000
816.409, 599.000
820.350, 38892.000
821.353, 21349.000
822.355, 8829.000
823.349, 2003.000
824.359, 487.000
828.104, 416.000
828.162, 634.000
828.316, 544889.000
828.537, 508.000
828.610, 738.000
828.757, 914.000
829.033, 744.000
829.320, 296273.000
829.468, 564.000
829.556, 494.000
829.620, 517.000
829.789, 496.000
829.844, 569.000
830.060, 397.000
830.129, 477.000
830.320, 99728.000
831.170, 506.000
831.321, 26801.000
832.249, 14061.000
832.322, 5877.000
833.250, 10839.000
833.325, 1349.000
834.248, 8663.000
834.320, 445.000
835.247, 5667.000
836.245, 2778.000
837.204, 30982.000
838.205, 25232.000
838.304, 8772.000
839.203, 23568.000
839.310, 5341.000
839.810, 545.000
840.202, 11177.000
840.310, 2782.000
840.811, 395.000
841.200, 6384.000
841.307, 715.000
842.198, 2595.000
842.330, 3806.000
843.196, 1044.000
843.334, 2083.000
844.291, 10305.000
845.294, 7285.000
846.293, 3495.000
847.294, 1171.000
848.289, 575.000
850.298, 20632.000
850.804, 955.000
851.302, 12651.000
851.805, 458.000
852.305, 4270.000
853.182, 2127.000
853.234, 900.000
853.319, 992.000
854.179, 2259.000
854.230, 674.000
855.182, 1843.000
855.215, 2257.000
856.214, 1966.000
857.212, 1414.000
858.213, 908.000
859.203, 510.000
860.290, 1852.000
861.294, 865.000
862.290, 544.000
866.275, 779.000
867.272, 483.000
868.267, 469.000
869.233, 433.000
870.260, 482.000
874.269, 433.000
875.267, 402.000
878.375, 48198.000
879.377, 31365.000
880.378, 12420.000
881.379, 4414.000
882.379, 1459.000
892.386, 590.000
893.390, 473.000
899.152, 662.000
900.155, 630.000
900.356, 3500.000
901.144, 581.000
901.357, 2469.000
902.356, 1146.000
903.283, 597.000
904.288, 574.000
906.270, 9394.000
907.268, 7616.000
908.268, 7226.000
909.268, 4083.000
910.265, 2404.000
910.345, 961.000
911.225, 22696.000
911.349, 809.000
912.224, 18785.000
912.347, 403.000
913.224, 18583.000
914.223, 9466.000
915.221, 5051.000
916.218, 2140.000
917.217, 987.000
918.214, 428.000
918.294, 383.000
925.282, 498.000
927.201, 1886.000
928.200, 1205.000
929.201, 1420.000
929.234, 2099.000
930.237, 1710.000
931.193, 652.000
931.232, 1029.000
932.234, 548.000
973.176, 420.000
975.174, 476.000
978.303, 536.000
980.288, 4710.000
981.289, 4834.000
982.287, 4397.000
983.286, 2413.000
984.283, 1390.000
985.244, 14277.000
986.244, 13168.000
987.243, 11690.000
988.241, 7157.000
989.240, 4447.000
990.239, 2224.000
991.237, 996.000
1001.218, 1018.000
1002.215, 1149.000
1002.271, 452.000
1003.219, 1057.000
1003.257, 1064.000
1004.255, 925.000
1005.251, 877.000
1006.258, 411.000
1031.157, 953.000
1032.158, 940.000
1033.159, 766.000
1034.160, 471.000
1049.183, 390.000
1052.326, 396.000
1054.309, 3874.000
1055.308, 3673.000
1056.306, 3524.000
1057.307, 2118.000
1058.306, 1522.000
1059.264, 12209.000
1060.265, 11946.000
1061.263, 11561.000
1062.261, 7233.000
1063.258, 3781.000
1064.257, 2086.000
1065.255, 905.000
1066.258, 431.000
1075.238, 764.000
1076.238, 911.000
1077.273, 903.000
1078.262, 975.000
1079.231, 680.000
1080.263, 443.000
1081.443, 415.000
1091.129, 665.000
1092.124, 599.000
1106.405, 1542.000
1107.407, 1203.000
1108.406, 576.000
1118.255, 477.000
1120.421, 1043.000
1121.212, 884.000
1121.421, 836.000
1122.214, 1281.000
1122.438, 410.000
1123.208, 1468.000
1124.208, 1012.000
1125.208, 623.000
1126.205, 470.000
1128.327, 2362.000
1129.329, 2881.000
1130.326, 2709.000
1131.326, 1873.000
1132.321, 1446.000
1133.285, 8557.000
1134.283, 9332.000
1135.283, 8893.000
1136.281, 6340.000
1137.277, 4221.000
1138.278, 2098.000
1139.281, 766.000
1140.278, 605.000
1149.255, 801.000
1150.260, 836.000
1151.287, 775.000
1152.266, 592.000
1152.296, 723.000
1153.279, 627.000
1154.281, 577.000
1176.221, 813.000
1177.225, 534.000
1178.226, 454.000
1181.178, 1904.000
1182.175, 2099.000
1183.177, 1869.000
1184.173, 1487.000
1185.171, 957.000
1186.172, 764.000
1202.351, 1594.000
1203.347, 1923.000
1204.346, 1718.000
1205.345, 1075.000
1206.345, 947.000
1207.302, 5772.000
1208.303, 5670.000
1209.301, 6679.000
1210.298, 4602.000
1211.300, 3054.000
1212.295, 1377.000
1213.299, 808.000
1225.309, 556.000
1226.307, 550.000
1227.310, 428.000
1228.312, 418.000
1243.145, 425.000
1253.472, 684.000
1253.964, 783.000
1254.461, 490.000
1255.195, 445.000
1256.198, 506.000
1257.194, 503.000
1272.230, 571.000
1273.228, 411.000
1276.366, 1028.000
1277.365, 817.000
1278.366, 1030.000
1279.364, 666.000
1280.365, 525.000
1281.320, 2689.000
1282.321, 3015.000
1283.321, 3561.000
1284.317, 2282.000
1285.320, 1634.000
1286.314, 1148.000
1300.320, 439.000
1317.167, 394.000
1318.174, 382.000
1351.386, 676.000
1355.339, 986.000
1356.342, 1639.000
1357.340, 1347.000
1357.541, 1673.000
1358.336, 1288.000
1358.547, 2034.000
1359.333, 906.000
1359.553, 1073.000
1360.332, 422.000
1379.529, 487.000
1380.525, 478.000
1381.535, 404.000
1429.353, 443.000
1430.349, 459.000
1431.360, 816.000
1432.367, 587.000
1433.359, 423.000
1465.196, 403.000
##END=$$ End of the data block